File: NewData/LFPBatteries.csv
abs_first_discharge_capacity_difference_cycles_2:100,abs_kurtosis_discharge_capacity_difference_cycles_2:100,abs_mean_discharge_capacity_difference_cycles_2:100,abs_min_discharge_capacity_difference_cycles_2:100,abs_skew_discharge_capacity_difference_cycles_2:100,abs_variance_discharge_capacity_difference_cycles_2:100,charge_time_cycles_1:5,discharge_capacity_cycle_100,discharge_capacity_cycle_2,integrated_time_temperature_cycles_1:100,intercept_discharge_capacity_cycle_number_2:100,intercept_discharge_capacity_cycle_number_91:100,max_discharge_capacity_difference,max_temperature_cycles_1:100,min_temperature_cycles_1:100,nominal_capacity_by_median,slope_discharge_capacity_cycle_number_2:100,slope_discharge_capacity_cycle_number_91:100,capacity_0.8,capacity_0.83,capacity_0.86,capacity_0.89,capacity_0.92,capacity_0.95,capacity_0.98
-3.30982,1.86703,-2.74286,-0.446806,0.584775,-3.16699,5760.0,1.032,1.03,306698,1.07291,1.032,1.035,18.459,15.16,1.033,-0.000594743,1.21779e-17,4550.0,4550.0,4550.0,4550.0,506.0,506.0,506.0
-3.01941,2.34982,-2.64871,-0.208776,0.993881,-3.05676,5785.6,1.042,1.04,296427,1.08388,1.042,1.043,16.706,15.281,1.044,-0.000602622,-5.69158e-18,3552.0,3552.0,3552.0,3552.0,3552.0,506.0,506.0
-2.31277,1.69437,-1.91759,-0.195631,0.655882,-2.4784,5811.2,1.03,1.03,262557,1.07099,1.03,1.029,20.877,15.107,1.031,-0.00059556,1.72732e-17,3760.0,3760.0,3760.0,3760.0,506.0,506.0,506.0
-2.67788,1.49585,-2.07642,-0.63173,0.0572557,-2.98159,5785.6,1.025,1.029,268509,1.06865,1.025,1.026,22.085,15.306,1.028,-0.000625516,1.94313e-18,3753.0,3753.0,3753.0,3753.0,506.0,506.0,506.0
-2.00544,0.393445,-1.6828,-0.189399,-0.220132,-1.29119,5785.6,1.059,1.067,614925,1.11104,1.06836,1.074,25.669,24.085,1.067,-0.000723983,-9.69697e-05,3049.0,3049.0,3049.0,3049.0,207.0,207.0,207.0
-2.38001,1.23324,-1.92013,-0.366808,0.547162,-2.36878,5785.6,1.029,1.032,460906,1.07245,1.029,1.032,26.685,24.393,1.032,-0.000625875,-1.64171e-17,3544.0,3544.0,3544.0,3544.0,506.0,506.0,506.0
-2.51511,1.72477,-2.25838,-0.141387,0.812973,-2.28916,5785.6,1.035,1.035,460297,1.07814,1.04935,1.038,25.985,23.911,1.038,-0.000614212,-0.000145455,3547.0,3547.0,3547.0,3547.0,506.0,506.0,506.0
-0.943098,0.797936,-2.14517,-0.455522,-0.123878,-2.46969,5785.6,1.048,1.05,457406,1.0916,1.05804,1.048,24.903,23.82,1.051,-0.000622449,-0.00010303,3037.0,3037.0,3037.0,3037.0,3037.0,506.0,506.0
-0.897819,0.712504,-2.04812,-0.525766,-0.122899,-2.47375,5785.6,1.047,1.049,467248,1.09022,1.047,1.048,26.084,24.058,1.049,-0.000622498,-1.38199e-17,3037.0,3037.0,3037.0,3037.0,3037.0,506.0,471.0
-2.45174,1.73586,-2.39613,-0.489405,0.711692,-3.07873,5811.2,1.03,1.036,394482,1.0735,1.03936,1.027,27.363,24.154,1.033,-0.000622795,-9.69697e-05,3543.0,3543.0,3543.0,3543.0,506.0,506.0,479.0
-2.24526,1.46398,-2.38943,-0.713155,0.579099,-3.20038,5785.6,1.026,1.03,0.0,1.06959,1.026,1.027,,,1.029,-0.00062825,2.30077e-17,4049.0,4049.0,4049.0,4049.0,506.0,506.0,506.0
-1.82104,1.4059,-2.30644,-0.657584,0.599192,-2.90643,5811.2,1.024,1.036,374946,1.07406,1.03396,1.031,30.346,24.026,1.032,-0.000693408,-9.69697e-05,207.0,207.0,207.0,207.0,207.0,207.0,207.0
-1.84446,1.52918,-3.41555,-0.480729,0.185791,-2.8456,5760.0,1.031,1.048,377108,1.08225,1.04373,1.034,30.82,24.154,1.039,-0.000711082,-0.000127273,4061.0,207.0,207.0,207.0,207.0,207.0,207.0
-1.76243,1.14207,-2.50456,-0.995597,0.101981,-3.58897,5785.6,1.021,1.039,383545,1.07299,1.03515,1.027,31.93,24.466,1.03,-0.000721459,-0.000145455,208.0,208.0,208.0,208.0,208.0,208.0,208.0
-2.85755,0.465665,-1.17538,-0.0625354,-0.300394,-1.14315,5785.6,1.043,1.062,378827,1.09475,1.05296,1.044,30.652,24.017,1.051,-0.000717502,-9.69697e-05,4061.0,205.0,205.0,205.0,205.0,205.0,205.0
-1.89773,-0.127012,-2.73353,-1.89773,-0.867056,-4.55295,5824.0,0.551,1.069,326905,0.657807,0.551,0.385,25.111,23.674,0.559,-0.0015529,2.88179e-18,7374.0,7374.0,7374.0,7374.0,7374.0,7374.0,7374.0
-1.76809,1.78517,-2.26801,-0.951845,0.368611,-3.8167,5824.0,0.582,1.045,342046,0.685755,0.590418,0.453,24.998,23.61,0.5925,-0.0014961,-8.48485e-05,7441.0,7441.0,7441.0,7441.0,7441.0,7441.0,7441.0
-1.80598,1.89372,-2.3258,-0.890672,0.49138,-3.71989,5888.0,0.589,1.064,345450,0.693612,0.589,0.461,24.976,23.603,0.598,-0.00151811,1.7872e-17,5944.0,5944.0,5944.0,5944.0,5944.0,5944.0,5944.0
-1.82431,1.39563,-2.3651,-1.16407,-0.211832,-4.24893,5824.0,0.587,1.047,341275,0.687993,0.577036,0.451,24.992,23.435,0.596,-0.00147461,9.69697e-05,6591.0,6591.0,6591.0,6591.0,6591.0,6591.0,6591.0
-2.49104,0.512895,-3.89142,-2.49104,0.010516,-5.75561,5824.0,0.66,1.053,245993,0.715546,0.66,0.002,28.538,24.423,0.66,-0.000827483,-8.17192e-18,2958.0,2958.0,2958.0,2958.0,2958.0,2958.0,2958.0
-1.3415,0.461667,-2.11706,-inf,0.308505,-3.83144,5824.0,0.22,1.07,152024,0.338612,0.22,0.003,24.89,23.472,0.22,-0.00176719,-2.47641e-18,19174.0,19174.0,19174.0,19174.0,19174.0,19174.0,19174.0
-1.3415,0.599729,-2.17475,-inf,0.343795,-3.91837,5824.0,0.22,1.066,153235,0.338134,0.22,0.003,24.866,23.659,0.22,-0.00176006,-2.47641e-18,18165.0,18165.0,18165.0,18165.0,18165.0,18165.0,18165.0
-1.6959,0.585317,-2.43859,-1.6959,0.354652,-4.65628,5824.0,0.22,1.064,110630,0.337896,0.22,0.003,28.177,24.458,0.22,-0.0017565,-2.47641e-18,12627.0,12627.0,12627.0,12627.0,12627.0,12627.0,12627.0
-2.11566,0.685729,-3.05765,-2.11566,0.395765,-5.49899,5824.0,0.22,1.05,108479,0.336225,0.22,0.003,27.385,24.079,0.22,-0.00173156,-2.47641e-18,11620.0,11620.0,11620.0,11620.0,11620.0,11620.0,11620.0
0.0,0.0,0.0,0.0,0.0,0.0,5862.4,1.058,1.076,671447,1.11192,1.07033,1.067,36.079,33.27,1.067,-0.000746432,-0.000127273,3155.0,3155.0,3155.0,257.0,257.0,257.0,234.0
0.0,0.0,0.0,0.0,0.0,0.0,5862.4,1.027,1.046,655295,1.07887,1.03696,1.031,36.065,33.434,1.036,-0.000715003,-9.69697e-05,3341.0,3341.0,257.0,257.0,257.0,257.0,241.0
0.0,0.0,0.0,0.0,0.0,0.0,5862.4,1.037,1.057,658225,1.09163,1.05115,1.047,35.1336,35.1336,1.047,-0.000752727,-0.000145455,3341.0,3341.0,257.0,257.0,257.0,126.0,125.0
0.0,0.0,0.0,0.0,0.0,0.0,5836.8,1.042,1.059,663204,1.09481,1.05196,1.05,36.433,33.993,1.051,-0.000729598,-9.69697e-05,3797.0,3797.0,257.0,257.0,257.0,257.0,252.0
0.0,0.0,0.0,0.0,0.0,0.0,5862.4,1.047,1.064,567988,1.09912,1.047,1.053,37.793,33.776,1.055,-0.000730204,-1.38199e-17,3855.0,3855.0,257.0,257.0,257.0,257.0,257.0
0.0,0.0,0.0,0.0,0.0,0.0,5862.4,1.021,1.039,558202,1.07367,1.03096,1.029,37.552,33.745,1.03,-0.000722177,-9.69697e-05,3597.0,257.0,257.0,257.0,257.0,257.0,238.0