File: NewData/NCABatteries.csv
abs_first_discharge_capacity_difference_cycles_2:100,abs_kurtosis_discharge_capacity_difference_cycles_2:100,abs_mean_discharge_capacity_difference_cycles_2:100,abs_min_discharge_capacity_difference_cycles_2:100,abs_skew_discharge_capacity_difference_cycles_2:100,abs_variance_discharge_capacity_difference_cycles_2:100,charge_time_cycles_1:5,discharge_capacity_cycle_100,discharge_capacity_cycle_2,integrated_time_temperature_cycles_1:100,intercept_discharge_capacity_cycle_number_2:100,intercept_discharge_capacity_cycle_number_91:100,max_discharge_capacity_difference,max_temperature_cycles_1:100,min_temperature_cycles_1:100,nominal_capacity_by_median,slope_discharge_capacity_cycle_number_2:100,slope_discharge_capacity_cycle_number_91:100,capacity_0.8,capacity_0.83,capacity_0.86,capacity_0.89,capacity_0.92,capacity_0.95,capacity_0.98
-0.581882,0.091227,-0.652902,-0.556555,-0.198558,-2.53784,1920.0,2.619,2.911,358191,2.99201,2.87802,2.817,30.881,16.419,2.824,-0.00421251,-0.00261818,521.0,257.0,190.0,144.0,108.0,77.0,38.0
-0.718078,0.0893522,-0.82197,-0.705399,-0.252584,-2.72786,1920.0,2.662,2.895,282383,2.95295,2.82849,2.795,19.851,15.94,2.8,-0.00350797,-0.00169091,257.0,257.0,257.0,232.0,156.0,102.0,49.0
-0.705683,0.852673,-1.10778,0.148826,0.321565,-1.1158,1971.2,2.543,2.87,344613,2.96279,2.90404,2.514,47.819,16.6,2.799,-0.00449587,-0.00363636,255.0,205.0,158.0,119.0,91.0,69.0,47.0
-0.600825,0.183003,-1.07057,0.414443,-0.334105,-0.100452,1996.8,2.56,2.901,344374,2.96075,2.86327,2.435,48.041,16.5,2.798,-0.00443639,-0.00307273,783.0,233.0,175.0,130.0,94.0,69.0,45.0
-0.835342,0.101538,-0.537124,0.23044,0.188283,-0.195601,1984.0,2.901,3.161,1.13077e+06,2.9831,1.24211,0.0,32.913,27.773,3.0095,-0.00140466,0.0149576,4.0,4.0,4.0,4.0,4.0,4.0,4.0
-1.7166,0.0923825,-0.775828,0.472261,-0.129626,-0.0428728,1971.2,2.825,3.158,683435,3.27815,3.119,3.119,31.298,26.628,3.086,-0.00500534,-0.003,134.0,134.0,134.0,134.0,94.0,74.0,44.0
-0.739508,1.22937,-0.83213,-0.0149875,0.463673,-1.47831,1920.0,2.871,3.143,521141,3.17255,3.0026,3.001,36.05,25.171,3.005,-0.00377643,-0.00133333,653.0,257.0,257.0,232.0,171.0,113.0,49.0
-0.754701,1.31953,-0.674661,0.046167,0.549381,-1.3534,1945.6,2.849,3.12,489470,3.14592,3.09215,2.97,32.758,24.535,2.9805,-0.00371623,-0.00247879,521.0,521.0,257.0,216.0,145.0,109.0,49.0
-0.69597,1.32496,-0.73142,0.106005,0.570766,-1.16448,1920.0,2.916,3.157,544352,3.22896,3.10807,3.064,37.525,25.269,3.064,-0.0037173,-0.00193939,521.0,257.0,242.0,190.0,147.0,102.0,54.0
-0.671386,1.26435,-0.659452,-0.366947,0.622593,-1.37755,1920.0,2.892,3.138,508770,3.20272,3.13373,3.042,37.886,25.328,3.0375,-0.00376706,-0.00252727,257.0,257.0,257.0,202.0,156.0,95.0,51.0
-0.714364,0.873593,-0.764112,0.288464,-0.797739,-0.642947,1920.0,2.842,3.116,501730,3.18475,3.10805,2.919,50.129,24.993,3.014,-0.00392712,-0.00272121,785.0,257.0,232.0,161.0,124.0,90.0,55.0
-0.798216,0.625552,-1.04088,0.233028,-0.59162,-0.673963,1945.6,2.772,3.116,434627,3.06829,2.91485,2.742,41.497,24.802,2.9025,-0.00364462,-0.00145455,785.0,785.0,257.0,257.0,191.0,110.0,54.0
-1.19997,0.338927,-1.22614,0.28151,-0.92393,-0.436085,1971.2,1.956,3.145,436994,2.26548,2.01836,1.58,30.906,27.731,2.0125,-0.00415021,-0.000630303,1159.0,1159.0,1159.0,1159.0,1159.0,1159.0,1159.0
-1.32883,0.438495,-1.44046,0.281187,-0.921109,-0.487541,1971.2,1.967,3.165,448185,2.26333,1.99395,1.562,31.497,27.766,2.0105,-0.00408473,-0.000278788,1293.0,1293.0,1293.0,1293.0,1293.0,1293.0,1293.0
-1.35066,0.488348,-1.42281,0.256649,-1.01213,-0.577645,1945.6,1.955,3.16,431550,2.25839,2.01002,1.555,30.038,26.836,2.005,-0.00415818,-0.000551515,1291.0,1291.0,1291.0,1291.0,1291.0,1291.0,1291.0
-1.2993,0.207676,-1.46001,0.278901,-0.933169,-0.407066,1920.0,1.924,3.097,422085,2.21493,1.92893,1.527,29.738,26.609,1.967,-0.00403116,-6.06061e-05,1528.0,1528.0,1528.0,1528.0,1528.0,1528.0,1528.0
-1.78343,0.17834,-1.74354,-1.92039,0.141536,-4.83008,1984.0,0.65,3.086,178365,0.987373,0.65,0.001,30.745,26.971,0.65,-0.00497689,-1.66415e-17,7877.0,7877.0,7877.0,7877.0,7877.0,7877.0,7877.0
-2.08889,-0.256774,-2.13716,-2.59577,-0.124764,-5.25022,1984.0,0.65,3.146,172834,0.991732,0.65,0.0,29.986,25.995,0.65,-0.00504143,-1.66415e-17,6079.0,6079.0,6079.0,6079.0,6079.0,6079.0,6079.0
-0.811348,0.598817,-1.12624,0.219572,0.0989853,-0.926916,2022.4,3.007,3.187,771238,3.28227,4.33793,3.135,45.108,35.708,3.1165,-0.00351491,-0.0144606,514.0,97.0,97.0,97.0,97.0,97.0,66.0
-0.954351,0.535966,-1.54288,0.0681672,-0.00353614,-0.811899,1971.2,2.987,3.153,766004,3.2267,3.18665,3.113,45.223,35.806,3.0795,-0.00295008,-0.00198788,257.0,257.0,66.0,66.0,66.0,66.0,66.0
-0.74636,1.17884,-0.837709,0.00739088,0.367707,-1.36412,1996.8,2.987,3.189,0.0,3.27484,3.1322,3.117,,,3.109,-0.00350245,-0.00146667,514.0,172.0,172.0,172.0,172.0,122.0,61.0
-0.76103,1.10236,-0.89886,0.0423001,0.322304,-1.25816,2048.0,3.017,3.205,725135,3.25782,3.16651,3.137,41.385,35.636,3.135,-0.00290061,-0.00150909,197.0,197.0,197.0,5.0,5.0,5.0,5.0
-0.948941,0.815958,-1.08577,0.0464496,0.265032,-0.541864,2022.4,2.802,3.158,717981,3.1301,3.04891,2.626,55.133,35.653,2.969,-0.00373546,-0.00250909,653.0,653.0,653.0,212.0,20.0,20.0,20.0
-0.751668,0.826453,-1.08371,0.390327,0.341938,-0.5231,2022.4,2.801,3.106,694818,3.15247,3.1116,2.469,55.153,36.131,3.0075,-0.00373516,-0.003,785.0,785.0,167.0,131.0,103.0,73.0,38.0