File: NewData/NMCBatteries.csv
abs_first_discharge_capacity_difference_cycles_2:100,abs_kurtosis_discharge_capacity_difference_cycles_2:100,abs_mean_discharge_capacity_difference_cycles_2:100,abs_min_discharge_capacity_difference_cycles_2:100,abs_skew_discharge_capacity_difference_cycles_2:100,abs_variance_discharge_capacity_difference_cycles_2:100,charge_time_cycles_1:5,discharge_capacity_cycle_100,discharge_capacity_cycle_2,integrated_time_temperature_cycles_1:100,intercept_discharge_capacity_cycle_number_2:100,intercept_discharge_capacity_cycle_number_91:100,max_discharge_capacity_difference,max_temperature_cycles_1:100,min_temperature_cycles_1:100,nominal_capacity_by_median,slope_discharge_capacity_cycle_number_2:100,slope_discharge_capacity_cycle_number_91:100,capacity_0.8,capacity_0.83,capacity_0.86,capacity_0.89,capacity_0.92,capacity_0.95,capacity_0.98
-0.619562,0.933,-1.08686,0.197719,0.120984,-0.887046,2099.2,2.296,2.697,311213,2.7637,2.64445,2.634,24.45,16.409,2.578,-0.00524002,-0.00352121,206.0,156.0,124.0,100.0,78.0,57.0,35.0
-0.875078,0.76493,-1.21257,0.099954,-0.164491,-0.962576,2073.6,2.287,2.579,299337,2.70951,2.64064,2.51,24.883,16.264,2.5495,-0.00453892,-0.0035697,226.0,164.0,130.0,105.0,83.0,62.0,43.0
-0.688966,0.362048,-1.33936,0.0338464,-0.0551242,-0.844389,2073.6,2.316,2.724,279772,2.78908,2.65267,2.69,31.305,16.363,2.5985,-0.00536517,-0.00340606,197.0,154.0,125.0,101.0,78.0,55.0,33.0
-0.671967,0.62331,-1.58391,0.00280469,0.129267,-1.02025,2073.6,2.294,2.714,286196,2.76469,2.63678,2.676,35.325,16.077,2.577,-0.0052889,-0.00344848,195.0,152.0,123.0,100.0,78.0,55.0,2.0
-0.882375,0.709305,-1.17381,0.352848,-0.553786,-0.492553,2099.2,2.661,2.907,590771,2.83466,2.82445,2.849,30.141,25.106,2.681,-0.00473,-0.00165455,552.0,552.0,61.0,57.0,49.0,34.0,27.0
-0.687508,0.15226,-1.46881,0.414197,-0.684563,-0.0917786,2073.6,2.667,2.99,645271,3.02351,2.73496,2.933,28.538,25.419,2.842,-0.00456763,-0.00069697,207.0,207.0,207.0,207.0,159.0,69.0,35.0
-0.742415,-0.140412,-1.0303,0.394611,-0.765197,-0.0787571,2099.2,2.642,2.967,522827,2.98854,2.74685,2.88,32.466,25.535,2.8115,-0.00435808,-0.00105455,520.0,520.0,256.0,256.0,165.0,77.0,36.0
-0.711193,-0.537222,-1.24182,0.389161,-1.10117,-0.0131755,2099.2,2.602,2.914,495523,2.93447,2.71582,2.827,29.704,24.77,2.761,-0.00418197,-0.00115152,784.0,784.0,256.0,256.0,175.0,82.0,37.0
-0.728789,-0.217446,-1.40787,0.387088,-0.810201,-0.0633387,2073.6,2.621,2.931,504901,2.95514,2.73435,2.841,30.702,25.101,2.7835,-0.00421213,-0.00114545,396.0,396.0,132.0,132.0,132.0,79.0,37.0
-0.708603,0.184926,-1.11803,0.396523,-0.463525,-0.220372,2073.6,2.627,2.96,495245,2.97403,2.74082,2.864,31.102,24.635,2.796,-0.00437423,-0.00115152,528.0,132.0,132.0,132.0,132.0,76.0,35.0
-0.754681,0.500899,-1.33671,0.251397,-0.214632,-0.54395,2048.0,2.611,2.929,434951,2.94782,2.71605,2.838,40.069,24.568,2.774,-0.00423375,-0.00105455,660.0,132.0,132.0,132.0,132.0,79.0,36.0
-1.24031,0.361945,-0.716075,0.177187,-0.360958,-0.591742,2048.0,2.63,2.793,428807,2.9102,2.74315,2.748,42.093,23.958,2.7715,-0.00345551,-0.00114545,132.0,132.0,132.0,132.0,132.0,97.0,41.0
-0.664992,-0.0772044,-1.03989,0.288033,-0.468189,-0.276598,2099.2,2.621,2.938,439757,2.9643,2.47465,2.88,44.596,25.379,2.7865,-0.00433903,0.00154545,729.0,729.0,213.0,213.0,126.0,78.0,36.0
-0.635051,0.0496693,-1.11389,0.306447,-0.423109,-0.265692,2048.0,2.629,2.965,444174,2.97476,2.74215,2.884,46.014,25.242,2.7935,-0.00437606,-0.00114545,551.0,551.0,212.0,212.0,174.0,79.0,36.0
-0.596926,-1.70398,-0.545179,0.340148,-0.176755,-0.0279877,2099.2,2.618,2.958,438253,2.96161,2.72838,2.801,49.455,26.343,2.789,-0.00424816,-0.00111515,697.0,697.0,58.0,58.0,58.0,58.0,35.0
-0.602557,0.0143032,-1.10483,0.306612,-0.66476,-0.244582,2099.2,2.632,2.973,456925,2.98266,2.73625,2.894,47.787,25.946,2.7995,-0.00444333,-0.00105455,904.0,904.0,211.0,211.0,135.0,76.0,35.0
-1.29011,0.817233,-1.23475,0.175284,-0.387787,-0.959062,2073.6,1.8,2.969,397114,1.96013,1.8,0.0,28.639,24.94,1.8,-0.00236233,-5.30298e-17,4350.0,4350.0,4350.0,4350.0,4350.0,4350.0,4350.0
-0.936584,0.490011,-0.702681,0.217895,-0.183824,-0.724479,2048.0,1.8,2.98,401200,1.96151,1.8,0.0,28.976,25.33,1.8,-0.00238269,-5.30298e-17,3630.0,3630.0,3630.0,3630.0,3630.0,3630.0,3630.0